#include "wavelengths_model.hpp"

std::vector<double> get_wavelengths_model() {
    return {
        4.430E-2, 4.510E-2, 4.590E-2, 4.680E-2, 4.770E-2, 4.860E-2, 4.960E-2, 5.060E-2, 5.170E-2, 5.280E-2,
        5.390E-2, 5.510E-2, 5.640E-2, 5.770E-2, 5.900E-2, 6.050E-2, 6.200E-2, 6.360E-2, 6.530E-2, 6.700E-2,
        6.890E-2, 7.080E-2, 7.290E-2, 7.380E-2, 7.510E-2, 7.750E-2, 8.000E-2, 8.270E-2, 8.550E-2, 8.860E-2, 
        9.180E-2, 9.300E-2, 9.540E-2, 9.920E-2, 1.033E-1, 1.078E-1, 1.100E-1, 1.127E-1, 1.140E-1, 1.181E-1, 
        1.210E-1, 1.240E-1, 1.272E-1, 1.295E-1, 1.305E-1, 1.319E-1, 1.333E-1, 1.348E-1, 1.362E-1, 1.370E-1, 
        1.378E-1, 1.387E-1, 1.393E-1, 1.409E-1, 1.425E-1, 1.435E-1, 1.442E-1, 1.450E-1, 1.459E-1, 1.468E-1, 
        1.476E-1, 1.480E-1, 1.485E-1, 1.494E-1, 1.512E-1, 1.531E-1, 1.540E-1, 1.550E-1, 1.569E-1, 1.580E-1, 
        1.589E-1, 1.610E-1, 1.625E-1, 1.648E-1, 1.669E-1, 1.692E-1, 1.713E-1, 1.737E-1, 1.757E-1, 1.779E-1, 
        1.802E-1, 1.809E-1, 1.821E-1, 1.833E-1, 1.843E-1, 1.850E-1, 1.860E-1, 1.870E-1, 1.880E-1, 1.890E-1, 
        1.900E-1, 1.910E-1, 1.930E-1, 1.950E-1, 2.100E-1, 2.500E-1, 3.000E-1, 3.500E-1, 4.000E-1, 4.100E-1, 
        4.200E-1, 4.300E-1, 4.400E-1, 4.500E-1, 4.600E-1, 4.700E-1, 4.800E-1, 4.900E-1, 5.000E-1, 5.100E-1, 
        5.200E-1, 5.300E-1, 5.400E-1, 5.500E-1, 5.600E-1, 5.700E-1, 5.800E-1, 5.900E-1, 6.000E-1, 6.100E-1, 
        6.200E-1, 6.300E-1, 6.400E-1, 6.500E-1, 6.600E-1, 6.700E-1, 6.800E-1, 6.900E-1, 7.000E-1, 7.100E-1, 
        7.200E-1, 7.300E-1, 7.400E-1, 7.500E-1, 7.600E-1, 7.700E-1, 7.800E-1, 7.900E-1, 8.000E-1, 8.100E-1, 
        8.200E-1, 8.300E-1, 8.400E-1, 8.500E-1, 8.600E-1, 8.700E-1, 8.800E-1, 8.900E-1, 9.000E-1, 9.100E-1, 
        9.200E-1, 9.300E-1, 9.400E-1, 9.500E-1, 9.600E-1, 9.700E-1, 9.800E-1, 9.900E-1, 1.000E+0, 1.010E+0, 
        1.020E+0, 1.030E+0, 1.040E+0, 1.050E+0, 1.060E+0, 1.070E+0, 1.080E+0, 1.090E+0, 1.100E+0, 1.110E+0, 
        1.120E+0, 1.130E+0, 1.140E+0, 1.150E+0, 1.160E+0, 1.170E+0, 1.180E+0, 1.190E+0, 1.200E+0, 1.210E+0, 
        1.220E+0, 1.230E+0, 1.240E+0, 1.250E+0, 1.260E+0, 1.270E+0, 1.280E+0, 1.290E+0, 1.300E+0, 1.310E+0, 
        1.320E+0, 1.330E+0, 1.340E+0, 1.350E+0, 1.360E+0, 1.370E+0, 1.380E+0, 1.390E+0, 1.400E+0, 1.410E+0, 
        1.420E+0, 1.430E+0, 1.440E+0, 1.449E+0, 1.460E+0, 1.471E+0, 1.481E+0, 1.493E+0, 1.504E+0, 1.515E+0, 
        1.527E+0, 1.538E+0, 1.563E+0, 1.587E+0, 1.613E+0, 1.650E+0, 1.680E+0, 1.700E+0, 1.730E+0, 1.760E+0, 
        1.800E+0, 1.830E+0, 1.840E+0, 1.850E+0, 1.855E+0, 1.860E+0, 1.870E+0, 1.890E+0, 1.905E+0, 1.923E+0, 
        1.942E+0, 1.961E+0, 1.980E+0, 2.000E+0, 2.020E+0, 2.041E+0, 2.062E+0, 2.083E+0, 2.105E+0, 2.130E+0, 
        2.150E+0, 2.170E+0, 2.190E+0, 2.220E+0, 2.240E+0, 2.245E+0, 2.250E+0, 2.260E+0, 2.270E+0, 2.290E+0, 
        2.310E+0, 2.330E+0, 2.350E+0, 2.370E+0, 2.390E+0, 2.410E+0, 2.430E+0, 2.460E+0, 2.500E+0, 2.520E+0, 
        2.550E+0, 2.565E+0, 2.580E+0, 2.590E+0, 2.600E+0, 2.620E+0, 2.675E+0, 2.725E+0, 2.778E+0, 2.817E+0, 
        2.833E+0, 2.849E+0, 2.865E+0, 2.882E+0, 2.899E+0, 2.915E+0, 2.933E+0, 2.950E+0, 2.967E+0, 2.985E+0, 
        3.003E+0, 3.021E+0, 3.040E+0, 3.058E+0, 3.077E+0, 3.096E+0, 3.115E+0, 3.135E+0, 3.155E+0, 3.175E+0, 
        3.195E+0, 3.215E+0, 3.236E+0, 3.257E+0, 3.279E+0, 3.300E+0, 3.322E+0, 3.345E+0, 3.367E+0, 3.390E+0, 
        3.413E+0, 3.436E+0, 3.460E+0, 3.484E+0, 3.509E+0, 3.534E+0, 3.559E+0, 3.624E+0, 3.732E+0, 3.775E+0, 
        3.847E+0, 3.969E+0, 4.099E+0, 4.239E+0, 4.348E+0, 4.387E+0, 4.444E+0, 4.505E+0, 4.547E+0, 4.560E+0, 
        4.580E+0, 4.719E+0, 4.904E+0, 5.000E+0, 5.100E+0, 5.200E+0, 5.263E+0, 5.400E+0, 5.556E+0, 5.714E+0, 
        5.747E+0, 5.780E+0, 5.814E+0, 5.848E+0, 5.882E+0, 6.061E+0, 6.135E+0, 6.250E+0, 6.289E+0, 6.329E+0, 
        6.369E+0, 6.410E+0, 6.452E+0, 6.494E+0, 6.579E+0, 6.667E+0, 6.757E+0, 6.897E+0, 7.042E+0, 7.143E+0, 
        7.246E+0, 7.353E+0, 7.463E+0, 7.576E+0, 7.692E+0, 7.812E+0, 7.937E+0, 8.065E+0, 8.197E+0, 8.333E+0, 
        8.475E+0, 8.696E+0, 8.929E+0, 9.091E+0, 9.259E+0, 9.524E+0, 9.804E+0, 1.000E+1, 1.020E+1, 1.031E+1, 
        1.042E+1, 1.053E+1, 1.064E+1, 1.075E+1, 1.087E+1, 1.100E+1, 1.111E+1, 1.136E+1, 1.163E+1, 1.190E+1, 
        1.220E+1, 1.250E+1, 1.282E+1, 1.299E+1, 1.316E+1, 1.333E+1, 1.351E+1, 1.370E+1, 1.389E+1, 1.408E+1, 
        1.429E+1, 1.471E+1, 1.515E+1, 1.538E+1, 1.563E+1, 1.613E+1, 1.639E+1, 1.667E+1, 1.695E+1, 1.724E+1, 
        1.818E+1, 1.887E+1, 1.923E+1, 1.961E+1, 2.000E+1, 2.041E+1, 2.083E+1, 2.222E+1, 2.260E+1, 2.305E+1, 
        2.360E+1, 2.460E+1, 2.500E+1, 2.600E+1, 2.857E+1, 3.100E+1, 3.333E+1, 3.448E+1, 3.564E+1, 3.700E+1, 
        3.824E+1, 3.960E+1, 4.114E+1, 4.276E+1, 4.358E+1, 4.458E+1, 4.550E+1, 4.615E+1, 4.671E+1, 4.736E+1, 
        4.800E+1, 4.878E+1, 5.003E+1, 5.128E+1, 5.275E+1, 5.350E+1, 5.424E+1, 5.500E+1, 5.574E+1, 5.640E+1, 
        5.700E+1, 5.746E+1, 5.840E+1, 5.929E+1, 6.000E+1, 6.100E+1, 6.125E+1, 6.250E+1, 6.378E+1, 6.467E+1, 
        6.558E+1, 6.655E+1, 6.760E+1, 6.900E+1, 7.053E+1, 7.300E+1, 7.500E+1, 7.629E+1, 8.000E+1, 8.297E+1, 
        8.500E+1, 8.680E+1, 9.080E+1, 9.517E+1, 1.000E+2, 1.200E+2, 1.500E+2, 1.670E+2
    };
}
